
% Echo Location Surface Spectrum in units of mm/sqrt(Hz)
% 64 Frequency Bands are 0.01562500 Hz wide(first frequency band is centered at 0.00830078)
     115
     -20
      56
      74
     199
     182
     533
     757
     486
     275
     286
     251
     270
     202
     210
     266
     235
     248
     388
     282
     237
     185
     276
     262
     158
     156
     152
     184
     151
     160
     177
     168
     162
     116
     162
     131
     142
     147
     152
     103
     113
     113
      96
      78
      53
      60
      48
      51
      50
     -15
     -24
     -64
      48
     -45
      67
      47
     -68
       9
      31
      28
      58
     -46
     -49
     -25

