
% Echo Location Surface Spectrum in units of mm/sqrt(Hz)
% 64 Frequency Bands are 0.01562500 Hz wide(first frequency band is centered at 0.00830078)
     312
     153
      32
     132
     293
     304
     840
     817
     310
     322
     242
     290
     213
     232
     146
     183
     132
     131
     113
     131
     163
      90
     175
     186
     233
     218
     260
     157
     146
     231
     177
     185
     149
     165
     145
     167
      62
     109
      41
     113
      99
     -55
      36
    -109
     -35
     -69
     -69
      84
      67
     -46
     -89
      60
      71
     -52
     111
     -28
      83
     -87
      59
     -52
     -32
     -64
      71
    -108

